ALV-7004/USB
Date :	"05.06.2015"
Time :	"10:54:18"
Samplename : 	""
SampMemo(0) : 	""
SampMemo(1) : 	""
SampMemo(2) : 	""
SampMemo(3) : 	""
SampMemo(4) : 	""
SampMemo(5) : 	""
SampMemo(6) : 	""
SampMemo(7) : 	""
SampMemo(8) : 	""
SampMemo(9) : 	""
Temperature [K] :	     298.16000
Viscosity [cp]  :	       0.89000
Refractive Index:	       1.33200
Wavelength [nm] :	       0.00000
Angle [°]       :	       0.00000
Duration [s]    :	        60
FloatDur [ms]   :	        59979
Stop TP [ms]   :	      6233
Runs            :	         1
Mode            :	"A-CH0+1  C-CH0/1+1/0 "
MeanCR0 [kHz]   :	     197.47916
MeanCR1 [kHz]   :	       0.00000
MeanCR2 [kHz]   :	       0.00000
MeanCR3 [kHz]   :	       0.00000

"Correlation"
  2.50000E-005	 -9.46432E-001	  0.00000E+000	  0.00000E+000	  0.00000E+000
  5.00000E-005	  5.49443E-001	  0.00000E+000	  0.00000E+000	  0.00000E+000
  7.50000E-005	  4.27094E-001	  0.00000E+000	  0.00000E+000	  0.00000E+000
  1.00000E-004	  2.66508E-001	  0.00000E+000	  0.00000E+000	  0.00000E+000
  1.25000E-004	  1.97950E-001	  0.00000E+000	  0.00000E+000	  0.00000E+000
  1.50000E-004	  1.49367E-001	  0.00000E+000	  0.00000E+000	  0.00000E+000
  1.75000E-004	  1.33812E-001	  0.00000E+000	  0.00000E+000	  0.00000E+000
  2.00000E-004	  1.07876E-001	  0.00000E+000	  0.00000E+000	  0.00000E+000
  2.25000E-004	  9.70488E-002	  0.00000E+000	  0.00000E+000	  0.00000E+000
  2.50000E-004	  9.35370E-002	  0.00000E+000	  0.00000E+000	  0.00000E+000
  2.75000E-004	  8.65304E-002	  0.00000E+000	  0.00000E+000	  0.00000E+000
  3.00000E-004	  7.31854E-002	  0.00000E+000	  0.00000E+000	  0.00000E+000
  3.25000E-004	  8.25389E-002	  0.00000E+000	  0.00000E+000	  0.00000E+000
  3.50000E-004	  7.53097E-002	  0.00000E+000	  0.00000E+000	  0.00000E+000
  3.75000E-004	  6.52367E-002	  0.00000E+000	  0.00000E+000	  0.00000E+000
  4.00000E-004	  6.74380E-002	  0.00000E+000	  0.00000E+000	  0.00000E+000
  4.50000E-004	  6.70183E-002	  0.00000E+000	  0.00000E+000	  0.00000E+000
  5.00000E-004	  6.14593E-002	  0.00000E+000	  0.00000E+000	  0.00000E+000
  5.50000E-004	  6.30782E-002	  0.00000E+000	  0.00000E+000	  0.00000E+000
  6.00000E-004	  6.22901E-002	  0.00000E+000	  0.00000E+000	  0.00000E+000
  6.50000E-004	  6.49454E-002	  0.00000E+000	  0.00000E+000	  0.00000E+000
  7.00000E-004	  6.34379E-002	  0.00000E+000	  0.00000E+000	  0.00000E+000
  7.50000E-004	  6.18876E-002	  0.00000E+000	  0.00000E+000	  0.00000E+000
  8.00000E-004	  6.01487E-002	  0.00000E+000	  0.00000E+000	  0.00000E+000
  9.00000E-004	  5.74892E-002	  0.00000E+000	  0.00000E+000	  0.00000E+000
  1.00000E-003	  5.67268E-002	  0.00000E+000	  0.00000E+000	  0.00000E+000
  1.10000E-003	  5.79902E-002	  0.00000E+000	  0.00000E+000	  0.00000E+000
  1.20000E-003	  5.76947E-002	  0.00000E+000	  0.00000E+000	  0.00000E+000
  1.30000E-003	  5.72493E-002	  0.00000E+000	  0.00000E+000	  0.00000E+000
  1.40000E-003	  5.66283E-002	  0.00000E+000	  0.00000E+000	  0.00000E+000
  1.50000E-003	  5.99346E-002	  0.00000E+000	  0.00000E+000	  0.00000E+000
  1.60000E-003	  5.73972E-002	  0.00000E+000	  0.00000E+000	  0.00000E+000
  1.80000E-003	  5.75256E-002	  0.00000E+000	  0.00000E+000	  0.00000E+000
  2.00000E-003	  5.48104E-002	  0.00000E+000	  0.00000E+000	  0.00000E+000
  2.20000E-003	  5.78126E-002	  0.00000E+000	  0.00000E+000	  0.00000E+000
  2.40000E-003	  5.47483E-002	  0.00000E+000	  0.00000E+000	  0.00000E+000
  2.60000E-003	  5.40159E-002	  0.00000E+000	  0.00000E+000	  0.00000E+000
  2.80000E-003	  5.49560E-002	  0.00000E+000	  0.00000E+000	  0.00000E+000
  3.00000E-003	  5.18103E-002	  0.00000E+000	  0.00000E+000	  0.00000E+000
  3.20000E-003	  5.26242E-002	  0.00000E+000	  0.00000E+000	  0.00000E+000
  3.60000E-003	  5.53865E-002	  0.00000E+000	  0.00000E+000	  0.00000E+000
  4.00000E-003	  5.32130E-002	  0.00000E+000	  0.00000E+000	  0.00000E+000
  4.40000E-003	  5.24657E-002	  0.00000E+000	  0.00000E+000	  0.00000E+000
  4.80000E-003	  5.31701E-002	  0.00000E+000	  0.00000E+000	  0.00000E+000
  5.20000E-003	  5.29678E-002	  0.00000E+000	  0.00000E+000	  0.00000E+000
  5.60000E-003	  5.12611E-002	  0.00000E+000	  0.00000E+000	  0.00000E+000
  6.00000E-003	  5.30620E-002	  0.00000E+000	  0.00000E+000	  0.00000E+000
  6.40000E-003	  5.30926E-002	  0.00000E+000	  0.00000E+000	  0.00000E+000
  7.20000E-003	  5.09623E-002	  0.00000E+000	  0.00000E+000	  0.00000E+000
  8.00000E-003	  5.12836E-002	  0.00000E+000	  0.00000E+000	  0.00000E+000
  8.80000E-003	  5.11786E-002	  0.00000E+000	  0.00000E+000	  0.00000E+000
  9.60000E-003	  4.99388E-002	  0.00000E+000	  0.00000E+000	  0.00000E+000
  1.04000E-002	  5.21707E-002	  0.00000E+000	  0.00000E+000	  0.00000E+000
  1.12000E-002	  5.12445E-002	  0.00000E+000	  0.00000E+000	  0.00000E+000
  1.20000E-002	  5.12188E-002	  0.00000E+000	  0.00000E+000	  0.00000E+000
  1.28000E-002	  5.20505E-002	  0.00000E+000	  0.00000E+000	  0.00000E+000
  1.44000E-002	  5.13857E-002	  0.00000E+000	  0.00000E+000	  0.00000E+000
  1.60000E-002	  5.07052E-002	  0.00000E+000	  0.00000E+000	  0.00000E+000
  1.76000E-002	  5.15471E-002	  0.00000E+000	  0.00000E+000	  0.00000E+000
  1.92000E-002	  5.08586E-002	  0.00000E+000	  0.00000E+000	  0.00000E+000
  2.08000E-002	  5.08213E-002	  0.00000E+000	  0.00000E+000	  0.00000E+000
  2.24000E-002	  5.08805E-002	  0.00000E+000	  0.00000E+000	  0.00000E+000
  2.40000E-002	  5.14144E-002	  0.00000E+000	  0.00000E+000	  0.00000E+000
  2.56000E-002	  5.15778E-002	  0.00000E+000	  0.00000E+000	  0.00000E+000
  2.88000E-002	  5.11487E-002	  0.00000E+000	  0.00000E+000	  0.00000E+000
  3.20000E-002	  5.10654E-002	  0.00000E+000	  0.00000E+000	  0.00000E+000
  3.52000E-002	  5.07588E-002	  0.00000E+000	  0.00000E+000	  0.00000E+000
  3.84000E-002	  5.13597E-002	  0.00000E+000	  0.00000E+000	  0.00000E+000
  4.16000E-002	  5.11560E-002	  0.00000E+000	  0.00000E+000	  0.00000E+000
  4.48000E-002	  5.08707E-002	  0.00000E+000	  0.00000E+000	  0.00000E+000
  4.80000E-002	  5.03755E-002	  0.00000E+000	  0.00000E+000	  0.00000E+000
  5.12000E-002	  5.04365E-002	  0.00000E+000	  0.00000E+000	  0.00000E+000
  5.76000E-002	  5.05767E-002	  0.00000E+000	  0.00000E+000	  0.00000E+000
  6.40000E-002	  5.02810E-002	  0.00000E+000	  0.00000E+000	  0.00000E+000
  7.04000E-002	  5.00630E-002	  0.00000E+000	  0.00000E+000	  0.00000E+000
  7.68000E-002	  4.99613E-002	  0.00000E+000	  0.00000E+000	  0.00000E+000
  8.32000E-002	  5.03174E-002	  0.00000E+000	  0.00000E+000	  0.00000E+000
  8.96000E-002	  4.96919E-002	  0.00000E+000	  0.00000E+000	  0.00000E+000
  9.60000E-002	  4.96339E-002	  0.00000E+000	  0.00000E+000	  0.00000E+000
  1.02400E-001	  4.97325E-002	  0.00000E+000	  0.00000E+000	  0.00000E+000
  1.15200E-001	  5.00201E-002	  0.00000E+000	  0.00000E+000	  0.00000E+000
  1.28000E-001	  4.95044E-002	  0.00000E+000	  0.00000E+000	  0.00000E+000
  1.40800E-001	  4.90956E-002	  0.00000E+000	  0.00000E+000	  0.00000E+000
  1.53600E-001	  4.87692E-002	  0.00000E+000	  0.00000E+000	  0.00000E+000
  1.66400E-001	  4.84591E-002	  0.00000E+000	  0.00000E+000	  0.00000E+000
  1.79200E-001	  4.82254E-002	  0.00000E+000	  0.00000E+000	  0.00000E+000
  1.92000E-001	  4.77175E-002	  0.00000E+000	  0.00000E+000	  0.00000E+000
  2.04800E-001	  4.73087E-002	  0.00000E+000	  0.00000E+000	  0.00000E+000
  2.30400E-001	  4.69492E-002	  0.00000E+000	  0.00000E+000	  0.00000E+000
  2.56000E-001	  4.63674E-002	  0.00000E+000	  0.00000E+000	  0.00000E+000
  2.81600E-001	  4.56437E-002	  0.00000E+000	  0.00000E+000	  0.00000E+000
  3.07200E-001	  4.49868E-002	  0.00000E+000	  0.00000E+000	  0.00000E+000
  3.32800E-001	  4.42253E-002	  0.00000E+000	  0.00000E+000	  0.00000E+000
  3.58400E-001	  4.34406E-002	  0.00000E+000	  0.00000E+000	  0.00000E+000
  3.84000E-001	  4.27368E-002	  0.00000E+000	  0.00000E+000	  0.00000E+000
  4.09600E-001	  4.20532E-002	  0.00000E+000	  0.00000E+000	  0.00000E+000
  4.60800E-001	  4.06175E-002	  0.00000E+000	  0.00000E+000	  0.00000E+000
  5.12000E-001	  3.95217E-002	  0.00000E+000	  0.00000E+000	  0.00000E+000
  5.63200E-001	  3.82045E-002	  0.00000E+000	  0.00000E+000	  0.00000E+000
  6.14400E-001	  3.70411E-002	  0.00000E+000	  0.00000E+000	  0.00000E+000
  6.65600E-001	  3.58872E-002	  0.00000E+000	  0.00000E+000	  0.00000E+000
  7.16800E-001	  3.48086E-002	  0.00000E+000	  0.00000E+000	  0.00000E+000
  7.68000E-001	  3.38797E-002	  0.00000E+000	  0.00000E+000	  0.00000E+000
  8.19200E-001	  3.29776E-002	  0.00000E+000	  0.00000E+000	  0.00000E+000
  9.21600E-001	  3.15101E-002	  0.00000E+000	  0.00000E+000	  0.00000E+000
  1.02400E+000	  3.02491E-002	  0.00000E+000	  0.00000E+000	  0.00000E+000
  1.12640E+000	  2.92824E-002	  0.00000E+000	  0.00000E+000	  0.00000E+000
  1.22880E+000	  2.81766E-002	  0.00000E+000	  0.00000E+000	  0.00000E+000
  1.33120E+000	  2.76429E-002	  0.00000E+000	  0.00000E+000	  0.00000E+000
  1.43360E+000	  2.67973E-002	  0.00000E+000	  0.00000E+000	  0.00000E+000
  1.53600E+000	  2.64447E-002	  0.00000E+000	  0.00000E+000	  0.00000E+000
  1.63840E+000	  2.60445E-002	  0.00000E+000	  0.00000E+000	  0.00000E+000
  1.84320E+000	  2.52788E-002	  0.00000E+000	  0.00000E+000	  0.00000E+000
  2.04800E+000	  2.48221E-002	  0.00000E+000	  0.00000E+000	  0.00000E+000
  2.25280E+000	  2.43984E-002	  0.00000E+000	  0.00000E+000	  0.00000E+000
  2.45760E+000	  2.40692E-002	  0.00000E+000	  0.00000E+000	  0.00000E+000
  2.66240E+000	  2.39579E-002	  0.00000E+000	  0.00000E+000	  0.00000E+000
  2.86720E+000	  2.36769E-002	  0.00000E+000	  0.00000E+000	  0.00000E+000
  3.07200E+000	  2.36103E-002	  0.00000E+000	  0.00000E+000	  0.00000E+000
  3.27680E+000	  2.34915E-002	  0.00000E+000	  0.00000E+000	  0.00000E+000
  3.68640E+000	  2.32321E-002	  0.00000E+000	  0.00000E+000	  0.00000E+000
  4.09600E+000	  2.32347E-002	  0.00000E+000	  0.00000E+000	  0.00000E+000
  4.50560E+000	  2.30321E-002	  0.00000E+000	  0.00000E+000	  0.00000E+000
  4.91520E+000	  2.28520E-002	  0.00000E+000	  0.00000E+000	  0.00000E+000
  5.32480E+000	  2.27964E-002	  0.00000E+000	  0.00000E+000	  0.00000E+000
  5.73440E+000	  2.28209E-002	  0.00000E+000	  0.00000E+000	  0.00000E+000
  6.14400E+000	  2.29716E-002	  0.00000E+000	  0.00000E+000	  0.00000E+000
  6.55360E+000	  2.30281E-002	  0.00000E+000	  0.00000E+000	  0.00000E+000
  7.37280E+000	  2.29075E-002	  0.00000E+000	  0.00000E+000	  0.00000E+000
  8.19200E+000	  2.27006E-002	  0.00000E+000	  0.00000E+000	  0.00000E+000
  9.01120E+000	  2.26220E-002	  0.00000E+000	  0.00000E+000	  0.00000E+000
  9.83040E+000	  2.26947E-002	  0.00000E+000	  0.00000E+000	  0.00000E+000
  1.06496E+001	  2.27717E-002	  0.00000E+000	  0.00000E+000	  0.00000E+000
  1.14688E+001	  2.25898E-002	  0.00000E+000	  0.00000E+000	  0.00000E+000
  1.22880E+001	  2.25142E-002	  0.00000E+000	  0.00000E+000	  0.00000E+000
  1.31072E+001	  2.25792E-002	  0.00000E+000	  0.00000E+000	  0.00000E+000
  1.47456E+001	  2.26581E-002	  0.00000E+000	  0.00000E+000	  0.00000E+000
  1.63840E+001	  2.26458E-002	  0.00000E+000	  0.00000E+000	  0.00000E+000
  1.80224E+001	  2.26990E-002	  0.00000E+000	  0.00000E+000	  0.00000E+000
  1.96608E+001	  2.26236E-002	  0.00000E+000	  0.00000E+000	  0.00000E+000
  2.12992E+001	  2.23881E-002	  0.00000E+000	  0.00000E+000	  0.00000E+000
  2.29376E+001	  2.23373E-002	  0.00000E+000	  0.00000E+000	  0.00000E+000
  2.45760E+001	  2.23266E-002	  0.00000E+000	  0.00000E+000	  0.00000E+000
  2.62144E+001	  2.23643E-002	  0.00000E+000	  0.00000E+000	  0.00000E+000
  2.94912E+001	  2.23685E-002	  0.00000E+000	  0.00000E+000	  0.00000E+000
  3.27680E+001	  2.23478E-002	  0.00000E+000	  0.00000E+000	  0.00000E+000
  3.60448E+001	  2.24498E-002	  0.00000E+000	  0.00000E+000	  0.00000E+000
  3.93216E+001	  2.23656E-002	  0.00000E+000	  0.00000E+000	  0.00000E+000
  4.25984E+001	  2.22418E-002	  0.00000E+000	  0.00000E+000	  0.00000E+000
  4.58752E+001	  2.24876E-002	  0.00000E+000	  0.00000E+000	  0.00000E+000
  4.91520E+001	  2.22252E-002	  0.00000E+000	  0.00000E+000	  0.00000E+000
  5.24288E+001	  2.22634E-002	  0.00000E+000	  0.00000E+000	  0.00000E+000
  5.89824E+001	  2.22494E-002	  0.00000E+000	  0.00000E+000	  0.00000E+000
  6.55360E+001	  2.22199E-002	  0.00000E+000	  0.00000E+000	  0.00000E+000
  7.20896E+001	  2.22438E-002	  0.00000E+000	  0.00000E+000	  0.00000E+000
  7.86432E+001	  2.21525E-002	  0.00000E+000	  0.00000E+000	  0.00000E+000
  8.51968E+001	  2.20400E-002	  0.00000E+000	  0.00000E+000	  0.00000E+000
  9.17504E+001	  2.19660E-002	  0.00000E+000	  0.00000E+000	  0.00000E+000
  9.83040E+001	  2.18366E-002	  0.00000E+000	  0.00000E+000	  0.00000E+000
  1.04858E+002	  2.18819E-002	  0.00000E+000	  0.00000E+000	  0.00000E+000
  1.17965E+002	  2.16531E-002	  0.00000E+000	  0.00000E+000	  0.00000E+000
  1.31072E+002	  2.14634E-002	  0.00000E+000	  0.00000E+000	  0.00000E+000
  1.44179E+002	  2.12386E-002	  0.00000E+000	  0.00000E+000	  0.00000E+000
  1.57286E+002	  2.09305E-002	  0.00000E+000	  0.00000E+000	  0.00000E+000
  1.70394E+002	  2.07131E-002	  0.00000E+000	  0.00000E+000	  0.00000E+000
  1.83501E+002	  2.05590E-002	  0.00000E+000	  0.00000E+000	  0.00000E+000
  1.96608E+002	  2.02352E-002	  0.00000E+000	  0.00000E+000	  0.00000E+000
  2.09715E+002	  2.01021E-002	  0.00000E+000	  0.00000E+000	  0.00000E+000
  2.35930E+002	  1.96172E-002	  0.00000E+000	  0.00000E+000	  0.00000E+000
  2.62144E+002	  1.90766E-002	  0.00000E+000	  0.00000E+000	  0.00000E+000
  2.88358E+002	  1.84557E-002	  0.00000E+000	  0.00000E+000	  0.00000E+000
  3.14573E+002	  1.78355E-002	  0.00000E+000	  0.00000E+000	  0.00000E+000
  3.40787E+002	  1.71634E-002	  0.00000E+000	  0.00000E+000	  0.00000E+000
  3.67002E+002	  1.65024E-002	  0.00000E+000	  0.00000E+000	  0.00000E+000
  3.93216E+002	  1.60180E-002	  0.00000E+000	  0.00000E+000	  0.00000E+000
  4.19430E+002	  1.54923E-002	  0.00000E+000	  0.00000E+000	  0.00000E+000
  4.71859E+002	  1.41021E-002	  0.00000E+000	  0.00000E+000	  0.00000E+000
  5.24288E+002	  1.28539E-002	  0.00000E+000	  0.00000E+000	  0.00000E+000
  5.76717E+002	  1.15691E-002	  0.00000E+000	  0.00000E+000	  0.00000E+000
  6.29146E+002	  1.03121E-002	  0.00000E+000	  0.00000E+000	  0.00000E+000
  6.81574E+002	  9.02623E-003	  0.00000E+000	  0.00000E+000	  0.00000E+000
  7.34003E+002	  7.78649E-003	  0.00000E+000	  0.00000E+000	  0.00000E+000
  7.86432E+002	  6.52837E-003	  0.00000E+000	  0.00000E+000	  0.00000E+000
  8.38861E+002	  5.46843E-003	  0.00000E+000	  0.00000E+000	  0.00000E+000
  9.43718E+002	  3.28322E-003	  0.00000E+000	  0.00000E+000	  0.00000E+000
  1.04858E+003	  1.69199E-003	  0.00000E+000	  0.00000E+000	  0.00000E+000
  1.15343E+003	  7.33195E-004	  0.00000E+000	  0.00000E+000	  0.00000E+000
  1.25829E+003	  2.49866E-004	  0.00000E+000	  0.00000E+000	  0.00000E+000
  1.36315E+003	  1.24584E-004	  0.00000E+000	  0.00000E+000	  0.00000E+000
  1.46801E+003	  1.98905E-004	  0.00000E+000	  0.00000E+000	  0.00000E+000
  1.57286E+003	  2.31619E-004	  0.00000E+000	  0.00000E+000	  0.00000E+000
  1.67772E+003	  2.44208E-004	  0.00000E+000	  0.00000E+000	  0.00000E+000
  1.88744E+003	  5.18849E-004	  0.00000E+000	  0.00000E+000	  0.00000E+000
  2.09715E+003	  6.75002E-004	  0.00000E+000	  0.00000E+000	  0.00000E+000
  2.30687E+003	  3.62993E-004	  0.00000E+000	  0.00000E+000	  0.00000E+000
  2.51658E+003	 -9.47105E-005	  0.00000E+000	  0.00000E+000	  0.00000E+000
  2.72630E+003	 -6.19315E-004	  0.00000E+000	  0.00000E+000	  0.00000E+000
  2.93601E+003	 -1.03487E-003	  0.00000E+000	  0.00000E+000	  0.00000E+000
  3.14573E+003	 -1.41816E-003	  0.00000E+000	  0.00000E+000	  0.00000E+000
  3.35544E+003	 -2.39746E-003	  0.00000E+000	  0.00000E+000	  0.00000E+000
  3.77487E+003	 -2.89828E-003	  0.00000E+000	  0.00000E+000	  0.00000E+000
  4.19430E+003	 -2.76127E-003	  0.00000E+000	  0.00000E+000	  0.00000E+000
  4.61373E+003	 -2.30191E-003	  0.00000E+000	  0.00000E+000	  0.00000E+000
  5.03317E+003	 -2.84451E-003	  0.00000E+000	  0.00000E+000	  0.00000E+000
  5.45260E+003	 -3.81679E-003	  0.00000E+000	  0.00000E+000	  0.00000E+000
  5.87203E+003	 -3.79304E-003	  0.00000E+000	  0.00000E+000	  0.00000E+000
  6.29146E+003	 -2.66617E-003	  0.00000E+000	  0.00000E+000	  0.00000E+000
  6.71089E+003	 -1.03463E-003	  0.00000E+000	  0.00000E+000	  0.00000E+000
  7.54975E+003	 -2.10796E-003	  0.00000E+000	  0.00000E+000	  0.00000E+000
  8.38861E+003	 -3.02565E-003	  0.00000E+000	  0.00000E+000	  0.00000E+000
  9.22747E+003	  1.02469E-003	  0.00000E+000	  0.00000E+000	  0.00000E+000
  1.00663E+004	  2.52767E-003	  0.00000E+000	  0.00000E+000	  0.00000E+000
  1.09052E+004	  7.67949E-004	  0.00000E+000	  0.00000E+000	  0.00000E+000
  1.17441E+004	 -9.47726E-005	  0.00000E+000	  0.00000E+000	  0.00000E+000
  1.25829E+004	  2.27754E-003	  0.00000E+000	  0.00000E+000	  0.00000E+000
  1.34218E+004	  3.03514E-003	  0.00000E+000	  0.00000E+000	  0.00000E+000
  1.50995E+004	  2.99060E-003	  0.00000E+000	  0.00000E+000	  0.00000E+000
  1.67772E+004	 -2.91455E-003	  0.00000E+000	  0.00000E+000	  0.00000E+000
  1.84549E+004	 -1.03095E-003	  0.00000E+000	  0.00000E+000	  0.00000E+000
  2.01327E+004	 -4.20829E-004	  0.00000E+000	  0.00000E+000	  0.00000E+000
  2.18104E+004	 -4.01853E-003	  0.00000E+000	  0.00000E+000	  0.00000E+000
  2.34881E+004	  3.43417E-003	  0.00000E+000	  0.00000E+000	  0.00000E+000
  2.51658E+004	  1.58438E-002	  0.00000E+000	  0.00000E+000	  0.00000E+000

"Count Rate"
       0.23438	     204.12715	       0.00000	     204.12715	       0.00000
       0.46875	     200.67293	       0.00000	     200.67293	       0.00000
       0.70313	     187.44882	       0.00000	     187.44882	       0.00000
       0.93750	     191.91373	       0.00000	     191.91373	       0.00000
       1.17188	     203.27426	       0.00000	     203.27426	       0.00000
       1.40625	     210.81383	       0.00000	     210.81383	       0.00000
       1.64063	     213.99512	       0.00000	     213.99512	       0.00000
       1.87500	     213.57721	       0.00000	     213.57721	       0.00000
       2.10938	     204.99283	       0.00000	     204.99283	       0.00000
       2.34375	     204.88623	       0.00000	     204.88623	       0.00000
       2.57813	     208.37029	       0.00000	     208.37029	       0.00000
       2.81250	     212.74989	       0.00000	     212.74989	       0.00000
       3.04688	     215.95251	       0.00000	     215.95251	       0.00000
       3.28125	     207.20610	       0.00000	     207.20610	       0.00000
       3.51563	     206.36600	       0.00000	     206.36600	       0.00000
       3.75000	     210.33621	       0.00000	     210.33621	       0.00000
       3.98438	     208.92041	       0.00000	     208.92041	       0.00000
       4.21875	     211.99509	       0.00000	     211.99509	       0.00000
       4.45313	     212.69020	       0.00000	     212.69020	       0.00000
       4.68750	     212.87784	       0.00000	     212.87784	       0.00000
       4.92188	     208.11015	       0.00000	     208.11015	       0.00000
       5.15625	     209.93109	       0.00000	     209.93109	       0.00000
       5.39063	     210.82663	       0.00000	     210.82663	       0.00000
       5.62500	     213.61559	       0.00000	     213.61559	       0.00000
       5.85938	     210.97588	       0.00000	     210.97588	       0.00000
       6.09375	     205.25298	       0.00000	     205.25298	       0.00000
       6.32813	     196.66006	       0.00000	     196.66006	       0.00000
       6.56250	     200.69426	       0.00000	     200.69426	       0.00000
       6.79688	     205.44913	       0.00000	     205.44913	       0.00000
       7.03125	     202.77957	       0.00000	     202.77957	       0.00000
       7.26563	     211.24028	       0.00000	     211.24028	       0.00000
       7.50000	     209.25729	       0.00000	     209.25729	       0.00000
       7.73438	     205.76471	       0.00000	     205.76471	       0.00000
       7.96875	     205.98645	       0.00000	     205.98645	       0.00000
       8.20313	     200.30193	       0.00000	     200.30193	       0.00000
       8.43750	     197.33386	       0.00000	     197.33386	       0.00000
       8.67188	     191.41904	       0.00000	     191.41904	       0.00000
       8.90625	     171.37180	       0.00000	     171.37180	       0.00000
       9.14063	     132.33061	       0.00000	     132.33061	       0.00000
       9.37500	     119.48178	       0.00000	     119.48178	       0.00000
       9.60938	     135.72087	       0.00000	     135.72087	       0.00000
       9.84375	     156.62527	       0.00000	     156.62527	       0.00000
      10.07813	     175.15865	       0.00000	     175.15865	       0.00000
      10.31250	     184.79207	       0.00000	     184.79207	       0.00000
      10.54688	     189.40195	       0.00000	     189.40195	       0.00000
      10.78125	     190.63011	       0.00000	     190.63011	       0.00000
      11.01563	     193.43187	       0.00000	     193.43187	       0.00000
      11.25000	     192.15253	       0.00000	     192.15253	       0.00000
      11.48438	     181.95619	       0.00000	     181.95619	       0.00000
      11.71875	     187.08208	       0.00000	     187.08208	       0.00000
      11.95313	     204.16553	       0.00000	     204.16553	       0.00000
      12.18750	     203.49174	       0.00000	     203.49174	       0.00000
      12.42188	     194.77092	       0.00000	     194.77092	       0.00000
      12.65625	     195.60675	       0.00000	     195.60675	       0.00000
      12.89063	     209.40656	       0.00000	     209.40656	       0.00000
      13.12500	     216.66042	       0.00000	     216.66042	       0.00000
      13.35938	     209.29141	       0.00000	     209.29141	       0.00000
      13.59375	     205.22311	       0.00000	     205.22311	       0.00000
      13.82813	     210.09740	       0.00000	     210.09740	       0.00000
      14.06250	     192.67706	       0.00000	     192.67706	       0.00000
      14.29688	     188.08423	       0.00000	     188.08423	       0.00000
      14.53125	     188.63861	       0.00000	     188.63861	       0.00000
      14.76563	     196.19098	       0.00000	     196.19098	       0.00000
      15.00000	     193.76877	       0.00000	     193.76877	       0.00000
      15.23438	     198.21660	       0.00000	     198.21660	       0.00000
      15.46875	     201.51303	       0.00000	     201.51303	       0.00000
      15.70313	     205.44487	       0.00000	     205.44487	       0.00000
      15.93750	     207.11655	       0.00000	     207.11655	       0.00000
      16.17188	     203.99922	       0.00000	     203.99922	       0.00000
      16.40625	     204.44272	       0.00000	     204.44272	       0.00000
      16.64063	     203.50027	       0.00000	     203.50027	       0.00000
      16.87500	     212.31493	       0.00000	     212.31493	       0.00000
      17.10938	     218.87793	       0.00000	     218.87793	       0.00000
      17.34375	     216.48557	       0.00000	     216.48557	       0.00000
      17.57813	     213.21472	       0.00000	     213.21472	       0.00000
      17.81250	     206.58348	       0.00000	     206.58348	       0.00000
      18.04688	     206.62613	       0.00000	     206.62613	       0.00000
      18.28125	     203.24867	       0.00000	     203.24867	       0.00000
      18.51563	     197.96074	       0.00000	     197.96074	       0.00000
      18.75000	     180.57025	       0.00000	     180.57025	       0.00000
      18.98438	     168.57857	       0.00000	     168.57857	       0.00000
      19.21875	     181.59798	       0.00000	     181.59798	       0.00000
      19.45313	     197.51723	       0.00000	     197.51723	       0.00000
      19.68750	     208.70718	       0.00000	     208.70718	       0.00000
      19.92188	     213.29149	       0.00000	     213.29149	       0.00000
      20.15625	     216.32779	       0.00000	     216.32779	       0.00000
      20.39063	     206.86493	       0.00000	     206.86493	       0.00000
      20.62500	     192.55766	       0.00000	     192.55766	       0.00000
      20.85938	     187.85822	       0.00000	     187.85822	       0.00000
      21.09375	     191.23567	       0.00000	     191.23567	       0.00000
      21.32813	     196.56625	       0.00000	     196.56625	       0.00000
      21.56250	     207.50887	       0.00000	     207.50887	       0.00000
      21.79688	     204.17406	       0.00000	     204.17406	       0.00000
      22.03125	     212.16141	       0.00000	     212.16141	       0.00000
      22.26563	     201.63243	       0.00000	     201.63243	       0.00000
      22.50000	     215.47063	       0.00000	     215.47063	       0.00000
      22.73438	     211.51747	       0.00000	     211.51747	       0.00000
      22.96875	     215.66679	       0.00000	     215.66679	       0.00000
      23.20313	     212.47697	       0.00000	     212.47697	       0.00000
      23.43750	     201.55994	       0.00000	     201.55994	       0.00000
      23.67188	     195.07368	       0.00000	     195.07368	       0.00000
      23.90625	     194.04596	       0.00000	     194.04596	       0.00000
      24.14063	     193.44040	       0.00000	     193.44040	       0.00000
      24.37500	     206.02910	       0.00000	     206.02910	       0.00000
      24.60938	     224.78423	       0.00000	     224.78423	       0.00000
      24.84375	     212.06758	       0.00000	     212.06758	       0.00000
      25.07813	     206.77112	       0.00000	     206.77112	       0.00000
      25.31250	     213.71793	       0.00000	     213.71793	       0.00000
      25.54688	     203.73909	       0.00000	     203.73909	       0.00000
      25.78125	     200.22943	       0.00000	     200.22943	       0.00000
      26.01563	     204.75403	       0.00000	     204.75403	       0.00000
      26.25000	     214.72861	       0.00000	     214.72861	       0.00000
      26.48438	     216.96320	       0.00000	     216.96320	       0.00000
      26.71875	     219.69672	       0.00000	     219.69672	       0.00000
      26.95313	     207.10802	       0.00000	     207.10802	       0.00000
      27.18750	     196.27628	       0.00000	     196.27628	       0.00000
      27.42188	     199.52153	       0.00000	     199.52153	       0.00000
      27.65625	     184.50635	       0.00000	     184.50635	       0.00000
      27.89063	     180.51054	       0.00000	     180.51054	       0.00000
      28.12500	     177.86658	       0.00000	     177.86658	       0.00000
      28.35938	     182.81761	       0.00000	     182.81761	       0.00000
      28.59375	     187.57677	       0.00000	     187.57677	       0.00000
      28.82813	     191.46596	       0.00000	     191.46596	       0.00000
      29.06250	     205.50031	       0.00000	     205.50031	       0.00000
      29.29688	     214.69449	       0.00000	     214.69449	       0.00000
      29.53125	     223.20210	       0.00000	     223.20210	       0.00000
      29.76563	     215.44078	       0.00000	     215.44078	       0.00000
      30.00000	     210.01212	       0.00000	     210.01212	       0.00000
      30.23438	     209.66669	       0.00000	     209.66669	       0.00000
      30.46875	     213.00577	       0.00000	     213.00577	       0.00000
      30.70313	     213.27016	       0.00000	     213.27016	       0.00000
      30.93750	     208.91188	       0.00000	     208.91188	       0.00000
      31.17188	     201.32539	       0.00000	     201.32539	       0.00000
      31.40625	     203.87981	       0.00000	     203.87981	       0.00000
      31.64063	     210.89059	       0.00000	     210.89059	       0.00000
      31.87500	     215.67532	       0.00000	     215.67532	       0.00000
      32.10938	     216.95892	       0.00000	     216.95892	       0.00000
      32.34375	     200.57059	       0.00000	     200.57059	       0.00000
      32.57813	     195.21442	       0.00000	     195.21442	       0.00000
      32.81250	     195.24001	       0.00000	     195.24001	       0.00000
      33.04688	     201.38510	       0.00000	     201.38510	       0.00000
      33.28125	     211.73495	       0.00000	     211.73495	       0.00000
      33.51563	     208.18266	       0.00000	     208.18266	       0.00000
      33.75000	     206.55363	       0.00000	     206.55363	       0.00000
      33.98438	     201.77744	       0.00000	     201.77744	       0.00000
      34.21875	     143.66556	       0.00000	     143.66556	       0.00000
      34.45313	      28.03886	       0.00000	      28.03886	       0.00000
      34.68750	       4.93825	       0.00000	       4.93825	       0.00000
      34.92188	       3.51392	       0.00000	       3.51392	       0.00000
      35.15625	      16.86169	       0.00000	      16.86169	       0.00000
      35.39063	     161.55927	       0.00000	     161.55927	       0.00000
      35.62500	     219.39394	       0.00000	     219.39394	       0.00000
      35.85938	     219.35129	       0.00000	     219.35129	       0.00000
      36.09375	     225.15948	       0.00000	     225.15948	       0.00000
      36.32813	     223.99103	       0.00000	     223.99103	       0.00000
      36.56250	     221.44940	       0.00000	     221.44940	       0.00000
      36.79688	     221.67116	       0.00000	     221.67116	       0.00000
      37.03125	     221.80762	       0.00000	     221.80762	       0.00000
      37.26563	     219.50908	       0.00000	     219.50908	       0.00000
      37.50000	     220.86945	       0.00000	     220.86945	       0.00000
      37.73438	     220.46005	       0.00000	     220.46005	       0.00000
      37.96875	     218.00372	       0.00000	     218.00372	       0.00000
      38.20313	     214.14011	       0.00000	     214.14011	       0.00000
      38.43750	     220.13168	       0.00000	     220.13168	       0.00000
      38.67188	     215.71797	       0.00000	     215.71797	       0.00000
      38.90625	     221.41528	       0.00000	     221.41528	       0.00000
      39.14063	     210.79677	       0.00000	     210.79677	       0.00000
      39.37500	     210.96309	       0.00000	     210.96309	       0.00000
      39.60938	     212.45139	       0.00000	     212.45139	       0.00000
      39.84375	     206.52805	       0.00000	     206.52805	       0.00000
      40.07813	     216.51543	       0.00000	     216.51543	       0.00000
      40.31250	     215.86722	       0.00000	     215.86722	       0.00000
      40.54688	     215.38533	       0.00000	     215.38533	       0.00000
      40.78125	     226.15738	       0.00000	     226.15738	       0.00000
      41.01563	     218.28091	       0.00000	     218.28091	       0.00000
      41.25000	     209.74771	       0.00000	     209.74771	       0.00000
      41.48438	     215.46637	       0.00000	     215.46637	       0.00000
      41.71875	     204.95445	       0.00000	     204.95445	       0.00000
      41.95313	     205.12077	       0.00000	     205.12077	       0.00000
      42.18750	     194.07581	       0.00000	     194.07581	       0.00000
      42.42188	     200.02473	       0.00000	     200.02473	       0.00000
      42.65625	     203.87128	       0.00000	     203.87128	       0.00000
      42.89063	     189.99471	       0.00000	     189.99471	       0.00000
      43.12500	     190.99686	       0.00000	     190.99686	       0.00000
      43.35938	     185.07779	       0.00000	     185.07779	       0.00000
      43.59375	     182.55748	       0.00000	     182.55748	       0.00000
      43.82813	     176.77487	       0.00000	     176.77487	       0.00000
      44.06250	     172.42938	       0.00000	     172.42938	       0.00000
      44.29688	     170.06261	       0.00000	     170.06261	       0.00000
      44.53125	     170.10524	       0.00000	     170.10524	       0.00000
      44.76563	     153.34163	       0.00000	     153.34163	       0.00000
      45.00000	     146.10057	       0.00000	     146.10057	       0.00000
      45.23438	     159.11998	       0.00000	     159.11998	       0.00000
      45.46875	     170.19907	       0.00000	     170.19907	       0.00000
      45.70313	     187.96483	       0.00000	     187.96483	       0.00000
      45.93750	     195.76027	       0.00000	     195.76027	       0.00000
      46.17188	     191.23140	       0.00000	     191.23140	       0.00000
      46.40625	     188.10129	       0.00000	     188.10129	       0.00000
      46.64063	     182.07986	       0.00000	     182.07986	       0.00000
      46.87500	     168.44637	       0.00000	     168.44637	       0.00000
      47.10938	     161.40147	       0.00000	     161.40147	       0.00000
      47.34375	     153.90881	       0.00000	     153.90881	       0.00000
      47.57813	     155.96855	       0.00000	     155.96855	       0.00000
      47.81250	     166.29707	       0.00000	     166.29707	       0.00000
      48.04688	     164.62967	       0.00000	     164.62967	       0.00000
      48.28125	     185.18440	       0.00000	     185.18440	       0.00000
      48.51563	     190.77084	       0.00000	     190.77084	       0.00000
      48.75000	     182.36131	       0.00000	     182.36131	       0.00000
      48.98438	     170.69801	       0.00000	     170.69801	       0.00000
      49.21875	     164.80878	       0.00000	     164.80878	       0.00000
      49.45313	     165.41434	       0.00000	     165.41434	       0.00000
      49.68750	     175.57230	       0.00000	     175.57230	       0.00000
      49.92188	     180.70671	       0.00000	     180.70671	       0.00000
      50.15625	     180.45937	       0.00000	     180.45937	       0.00000
      50.39063	     192.78368	       0.00000	     192.78368	       0.00000
      50.62500	     186.97121	       0.00000	     186.97121	       0.00000
      50.85938	     185.35071	       0.00000	     185.35071	       0.00000
      51.09375	     196.21230	       0.00000	     196.21230	       0.00000
      51.32813	     201.71346	       0.00000	     201.71346	       0.00000
      51.56250	     196.03746	       0.00000	     196.03746	       0.00000
      51.79688	     202.46828	       0.00000	     202.46828	       0.00000
      52.03125	     199.49594	       0.00000	     199.49594	       0.00000
      52.26563	     188.35289	       0.00000	     188.35289	       0.00000
      52.50000	     184.42105	       0.00000	     184.42105	       0.00000
      52.73438	     189.75163	       0.00000	     189.75163	       0.00000
      52.96875	     197.55560	       0.00000	     197.55560	       0.00000
      53.20313	     208.00781	       0.00000	     208.00781	       0.00000
      53.43750	     211.76907	       0.00000	     211.76907	       0.00000
      53.67188	     213.22325	       0.00000	     213.22325	       0.00000
      53.90625	     205.73912	       0.00000	     205.73912	       0.00000
      54.14063	     208.83511	       0.00000	     208.83511	       0.00000
      54.37500	     207.55151	       0.00000	     207.55151	       0.00000
      54.60938	     197.28268	       0.00000	     197.28268	       0.00000
      54.84375	     221.47499	       0.00000	     221.47499	       0.00000
      55.07813	     220.11462	       0.00000	     220.11462	       0.00000
      55.31250	     218.40031	       0.00000	     218.40031	       0.00000
      55.54688	     219.96538	       0.00000	     219.96538	       0.00000
      55.78125	     217.35126	       0.00000	     217.35126	       0.00000
      56.01563	     219.50908	       0.00000	     219.50908	       0.00000
      56.25000	     215.15079	       0.00000	     215.15079	       0.00000
      56.48438	     215.03564	       0.00000	     215.03564	       0.00000
      56.71875	     210.35753	       0.00000	     210.35753	       0.00000
      56.95313	     214.31070	       0.00000	     214.31070	       0.00000
      57.18750	     217.78197	       0.00000	     217.78197	       0.00000
      57.42188	     210.56650	       0.00000	     210.56650	       0.00000
      57.65625	     214.33627	       0.00000	     214.33627	       0.00000
      57.89063	     210.80957	       0.00000	     210.80957	       0.00000
      58.12500	     213.95674	       0.00000	     213.95674	       0.00000
      58.35938	     221.91850	       0.00000	     221.91850	       0.00000
      58.59375	     221.61145	       0.00000	     221.61145	       0.00000
      58.82813	     214.28084	       0.00000	     214.28084	       0.00000
      59.06250	     219.26601	       0.00000	     219.26601	       0.00000
      59.29688	     216.67747	       0.00000	     216.67747	       0.00000
      59.53125	     211.29572	       0.00000	     211.29572	       0.00000

Monitor Diode	      1.00

"Cumulant 1.Order"
FluctuationFreq. [1/ms]	 0.0000E+000
DiffCoefficient [µm²/s]	 0.0000E+000
Hydrodyn. Radius [nm]	 0.0000E+000

"Cumulant 2.Order"
FluctuationFreq. [1/ms]	 0.0000E+000
DiffCoefficient [µm²/s]	 0.0000E+000
Hydrodyn. Radius [nm]	 0.0000E+000
Expansion Parameter µ2	 0.0000E+000

"Cumulant 3.Order"
FluctuationFreq. [1/ms]	 0.0000E+000
DiffCoefficient [µm²/s]	 0.0000E+000
Hydrodyn. Radius [nm]	 0.0000E+000
Expansion Parameter µ2	 0.0000E+000
Expansion Parameter µ3	 0.0000E+000

